; Spectrum file
;
Device Spectrum         ; Device name
PolarizedFlag 0         ; unpolarized/polarized beam (0/1)
LoopFlag 0              ; 0: extract random energies on the whole spectrum
                        ; 1: loop on all lines and sampling points
ContinuousPhotonNum 1	; Multiplicity of events for each interval in spectrum 
LinePhotonNum 1		; Multiplicity of events for each line in the spectrum
RandomEneFlag 1		; enable random energy on each interval (0/1)
ContinuousSpectrum      ; continuous part of the spectrum
1023                     ; Number of sampling points in the continuous spectrum

0.06777	100000
0.13554	75943.3787
0.2033	71263.81749
0.27107	68208.25263
0.33884	65895.92958
0.40661	64020.18238
0.47437	62435.16404
0.54214	61058.51377
0.60991	59839.61127
0.67768	58744.54198
0.74544	57749.62889
0.81321	56837.1712
0.88098	55994.18704
0.94875	55210.50642
1.01651	54478.18958
1.08428	53790.54193
1.15205	53142.37531
1.21982	52529.29629
1.28758	51947.70373
1.35535	51394.3038
1.42312	50866.51419
1.49089	50362.0325
1.55865	49878.92875
1.62642	49415.31196
1.69419	48969.71676
1.76196	48540.78254
1.82972	48127.35961
1.89749	47728.24566
1.96526	47342.53362
2.03303	46969.35067
2.1008	46607.90782
2.16856	46257.54033
2.23633	45917.49364
2.3041	45587.22587
2.37187	45266.193
2.43963	44953.94121
2.5074	44649.9191
2.57517	44353.74981
2.64294	44065.04187
2.7107	43783.47377
2.77847	43508.62601
2.84624	43240.22784
2.91401	42977.9879
2.98177	42721.67175
3.04954	42470.94973
3.11731	42225.62232
3.18508	41985.46663
3.25284	41750.30779
3.32061	41519.87977
3.38838	41294.03254
3.45615	41072.59169
3.52391	40855.4244
3.59168	40642.31115
3.65945	40433.13734
3.72722	40227.76384
3.79498	40026.08831
3.86275	39827.92622
3.93052	39633.18887
3.99829	39441.76349
4.06606	39253.54277
4.13382	39068.45169
4.20159	38886.33835
4.26936	38707.13753
4.33713	38530.76073
4.40489	38357.14886
4.47266	38186.16994
4.54043	38017.77257
4.6082	37851.88286
4.67596	37688.45402
4.74373	37527.37003
4.8115	37368.5902
4.87927	37212.05221
4.94703	37057.71885
5.0148	36905.48709
5.08257	36755.32468
5.15034	36607.17853
5.2181	36461.019
5.28587	36316.75382
5.35364	36174.35739
5.42141	36033.78413
5.48917	35895.01046
5.55694	35757.95306
5.62471	35622.59169
5.69248	35488.88689
5.76024	35356.81998
5.82801	35226.3152
5.89578	35097.35662
5.96355	34969.90989
6.03131	34843.96028
6.09908	34719.43846
6.16685	34596.33204
6.23462	34474.61092
6.30239	34354.24592
6.37015	34235.22627
6.43792	34117.48947
6.50569	34001.02665
6.57346	33885.81206
6.64122	33771.83747
6.70899	33659.04503
6.77676	33547.42811
6.84453	33436.96391
6.91229	33327.64629
6.98006	33219.42145
7.04783	33112.28467
7.1156	33006.21561
7.18336	32901.2099
7.25113	32797.21732
7.3189	32694.23471
7.38667	32592.24386
7.45443	32491.24189
7.5222	32391.18173
7.58997	32292.06155
7.65774	32193.86499
7.7255	32096.59038
7.79327	32000.19348
7.86104	31904.67358
7.92881	31810.0159
7.99657	31716.21983
8.06434	31623.24365
8.13211	31531.08757
8.19988	31439.73822
8.26765	31349.18257
8.33541	31259.42107
8.40318	31170.41481
8.47095	31082.16495
8.53872	30994.65965
8.60648	30907.90008
8.67425	30821.84932
8.74202	30736.50918
8.80979	30651.86885
8.87755	30567.93012
8.94532	30484.65789
9.01309	30402.05449
9.08086	30320.11006
9.14862	30238.82689
9.21639	30158.17154
9.28416	30078.1468
9.35193	29998.74363
9.41969	29919.96475
9.48746	29841.77825
9.55523	29764.1873
9.623	29687.18359
9.69076	29610.77021
9.75853	29534.91664
9.8263	30006.74121
9.89407	29574.72235
9.96183	29708.41947
10.0296	29031.9162
10.09737	29240.78222
10.16514	29058.94381
10.23291	29042.23151
10.30067	28567.6327
10.36844	28627.99772
10.43621	28463.85917
10.50398	28184.29841
10.57174	27998.6845
10.63951	28102.66097
10.70728	28010.13374
10.77505	28069.58682
10.84281	27701.35746
10.91058	27710.32186
10.97835	27806.51201
11.04612	27151.33868
11.11388	27385.17432
11.18165	26833.34062
11.24942	27133.9917
11.31719	26995.6273
11.38495	27081.1167
11.45272	26780.07249
11.52049	26888.45458
11.58826	26597.16189
11.65602	26454.98816
11.72379	26537.28607
11.79156	26372.19757
11.85933	26044.46619
11.92709	25896.29465
11.99486	25358.58368
12.06263	25481.69096
12.1304	25578.44828
12.19817	25333.34985
12.26593	25279.13068
12.3337	25198.83602
12.40147	24869.02156
12.46924	24931.6483
12.537	25040.17806
12.60477	24693.28321
12.67254	24754.64303
12.74031	24380.13546
12.80807	24249.38779
12.87584	24334.80914
12.94361	24288.66723
13.01138	23971.26894
13.07914	23694.73449
13.14691	23879.19416
13.21468	23548.51349
13.28245	23881.01146
13.35021	23489.09698
13.41798	23273.51931
13.48575	23411.13465
13.55352	23092.82276
13.62128	22984.03644
13.68905	22742.00966
13.75682	22441.59139
13.82459	22521.28966
13.89235	22216.20801
13.96012	22041.63061
14.02789	22233.77646
14.09566	21869.65307
14.16343	22011.49089
14.23119	21789.01775
14.29896	21724.13254
14.36673	21815.75083
14.4345	21532.13103
14.50226	21301.1262
14.57003	21372.83674
14.6378	21158.19604
14.70557	21251.20511
14.77333	20682.8935
14.8411	20704.50674
14.90887	20716.10084
14.97664	20293.38684
15.0444	20667.80428
15.11217	20244.13937
15.17994	20578.24702
15.24771	20146.76523
15.31547	19988.40125
15.38324	19780.78217
15.45101	19805.88363
15.51878	19921.65638
15.58654	19433.37551
15.65431	19681.14464
15.72208	19642.03085
15.78985	19731.80661
15.85761	19238.89045
15.92538	19499.85441
15.99315	19152.03242
16.060921	18833.48911
16.128691	19052.24579
16.196449	18934.75135
16.264219	18784.13264
16.331989	18555.13512
16.399759	18475.06934
16.46752	18385.00431
16.53529	18487.05594
16.60306	18428.25614
16.67083	18185.51808
16.73859	18079.57779
16.80636	17823.90844
16.87413	17820.60782
16.9419	17844.47848
17.009661	17784.96095
17.077431	17676.23944
17.145201	17459.0337
17.212971	17799.56553
17.280729	17544.2557
17.348499	17328.18766
17.416269	17462.79361
17.484039	17084.06361
17.5518	17335.24372
17.61957	17287.08485
17.68734	16936.6221
17.75511	16813.20649
17.82287	16992.1257
17.89064	16569.48838
17.95841	16687.18438
18.02618	16714.51236
18.093941	16656.50545
18.161711	16389.67214
18.229481	16494.37474
18.297251	16034.83867
18.365021	16317.2803
18.432779	16264.4071
18.500549	16036.87932
18.568319	16263.11723
18.636089	15788.70259
18.70385	15850.34439
18.77162	15668.09052
18.83939	15724.73973
18.90716	15940.97777
18.97492	15635.3329
19.04269	15587.64103
19.11046	15508.85367
19.17823	15523.40953
19.245991	15255.99571
19.313761	15207.36187
19.381531	15173.7923
19.449301	15149.26494
19.517059	15028.42527
19.584829	15083.1857
19.652599	15113.87247
19.720369	14866.65667
19.78813	14931.47538
19.8559	14742.48127
19.92367	14786.24838
19.99144	14584.24163
20.0592	14444.40681
20.12697	14505.20807
20.19474	14514.85711
20.26251	14363.01958
20.33028	14347.61295
20.398041	14276.04603
20.465811	14172.39452
20.533581	14420.80048
20.601351	14341.23665
20.669109	14256.66919
20.736879	13928.40555
20.804649	14062.4942
20.872419	14040.13657
20.94018	14014.77781
21.00795	13967.36409
21.07572	13878.84323
21.14349	14061.08424
21.21125	14253.35182
21.27902	14163.84513
21.34679	14520.56295
21.41456	14484.2095
21.482321	15575.89694
21.550091	16363.74056
21.617861	18765.85194
21.685631	22726.00505
21.753389	29110.4016
21.821159	39040.8592
21.888929	52138.23862
21.956699	66856.41988
22.02446	81165.13707
22.09223	91046.17324
22.16	94505.66974
22.22777	89428.56431
22.29554	77135.51769
22.3633	61500.47933
22.43107	45669.3792
22.49884	32565.4329
22.56661	23035.60778
22.634371	17712.3094
22.702141	14453.16658
22.769911	13459.59031
22.837681	12462.0306
22.905439	12190.23714
22.973209	12163.0362
23.040979	11987.4858
23.108749	12238.95171
23.17651	11972.19424
23.24428	11953.02508
23.31205	12069.1744
23.37982	12043.99503
23.44758	11969.70462
23.51535	11765.11736
23.58312	11883.27682
23.65089	11665.66841
23.718651	11678.5908
23.786421	11688.50793
23.854191	11834.73459
23.921961	11663.24548
23.989719	11676.17446
24.057489	11506.69749
24.125259	11515.62188
24.193029	11750.04758
24.260799	11781.02167
24.32856	11987.38281
24.39633	12000.31801
24.4641	12525.37372
24.53187	13254.86824
24.59963	14578.64335
24.6674	16553.80979
24.73517	18573.04454
24.80294	21674.57842
24.870701	24038.49117
24.938471	25564.58491
25.006241	25475.22216
25.074011	23735.36123
25.141769	21430.33018
25.209539	18608.24079
25.277309	16076.80036
25.345079	14808.04017
25.41284	13730.69718
25.48061	13077.25198
25.54838	12626.23645
25.61615	11996.85779
25.68391	11228.19975
25.75168	10682.00991
25.81945	10311.1875
25.88722	9846.177054
25.954981	9440.293378
26.022751	9529.423838
26.090521	9238.78198
26.158291	9035.320669
26.226061	9006.214761
26.293819	8943.041076
26.361589	8658.42303
26.429359	8280.621394
26.497129	8261.54234
26.56489	8057.093746
26.63266	7983.909201
26.70043	7622.152195
26.7682	7792.454264
26.83596	7668.172355
26.90373	7600.002805
26.9715	7831.42437
27.03927	7710.151224
27.107031	7744.184102
27.174801	7638.944624
27.242571	7661.956829
27.310341	7574.754556
27.378099	7618.808537
27.445869	7516.578807
27.513639	7409.340598
27.581409	7586.653213
27.64917	7460.379627
27.71694	7450.330952
27.78471	7461.323093
27.85248	7426.227189
27.92024	7450.244918
27.98801	7459.23411
28.05578	7438.166312
28.12355	7392.051372
28.191311	7300.851544
28.259081	7406.024533
28.326851	7305.808864
28.394621	7317.80589
28.462391	7306.759724
28.530149	7233.597158
28.597919	7206.521831
28.665689	7240.561421
28.733459	7126.32382
28.80122	6996.057314
28.86899	6992.0271
28.93676	7188.369827
29.00453	7105.192548
29.07229	7079.121889
29.14006	7053.051625
29.20783	6965.868849
29.2756	6865.662811
29.343361	6803.527699
29.411131	6872.634438
29.478901	6930.720746
29.546671	6823.504007
29.614429	6670.203781
29.682199	6823.464629
29.749969	6728.271645
29.817739	6635.083041
29.8855	6740.255819
29.95327	6611.002586
30.02104	6697.140366
30.08881	6533.825614
30.15657	6517.77813
30.22434	6567.85024
30.29211	6580.855493
30.35988	6422.552731
30.42765	6689.013928
30.495411	6352.392323
30.563181	6456.562036
30.630951	6360.373115
30.698721	6339.319028
30.766479	6407.424191
30.834249	6429.447129
30.90202	6244.101442
30.96979	6344.26374
31.03755	6262.102455
31.10532	5997.618918
31.17309	6013.632763
31.24086	6189.929685
31.30862	6136.821402
31.37639	6137.808767
31.44416	5967.495004
31.51193	5851.277173
31.579691	5746.079338
31.647461	5640.882101
31.715231	5672.925579
31.783001	5452.52791
31.85076	5421.461754
31.91853	5309.254408
31.9863	5235.113924
32.05407	5119.902446
32.12183	5041.755928
32.189602	5126.893063
32.25737	5060.767873
32.325142	4971.603184
32.39291	4960.573999
32.46067	5000.633148
32.528439	4993.611037
32.59621	4903.445831
32.663979	4962.537859
32.731739	5006.603917
32.799511	4828.288148
32.867279	4834.289184
32.935051	4799.219933
33.002811	4855.30685
33.07058	4861.308034
33.138351	4555.777437
33.20612	4598.842502
33.27388	4683.979149
33.341648	4730.049076
33.40942	4480.61658
33.477188	4699.981113
33.544949	4659.904831
33.61272	4458.555463
33.680489	4554.71049
33.74826	4468.556937
33.816021	4434.491741
33.883789	4528.643113
33.951561	4308.263913
34.019329	4557.67681
34.08709	4324.2765
34.154861	4351.314828
34.22263	4196.046953
34.290401	4239.112397
34.35817	4237.102195
34.42593	4187.011537
34.493698	4146.937845
34.56147	4144.927947
34.629238	4008.693967
34.696999	4053.762926
34.764771	4011.686538
34.832539	3952.581969
34.900311	3830.372633
34.968071	3933.538327
35.035839	3827.356088
35.103611	3868.418512
35.171379	3805.308166
35.23914	3690.111777
35.306911	3757.217434
35.37468	3674.074519
35.442451	3613.969937
35.510208	3633.997822
35.57798	3577.900144
35.645748	3569.881879
35.71352	3455.688879
35.781281	3588.903178
35.849049	3426.63152
35.916821	3467.694229
35.984589	3447.656611
36.052349	3360.509059
36.120121	3426.612798
36.187889	3264.342618
36.255661	3152.154799
36.323429	3139.129337
36.39119	3018.928953
36.458961	3078.021401
36.52673	3047.968407
36.594501	3045.961194
36.662258	2922.756764
36.73003	2914.739991
36.797798	2788.531206
36.86557	2840.612246
36.933331	2790.527422
37.001099	2680.345314
37.068871	2724.413375
37.136639	2575.168431
37.204399	2494.034039
37.272171	2526.082796
37.339939	2370.828991
37.407711	2400.874621
37.475471	2367.818435
37.54324	2214.568658
37.611012	2176.504739
37.67878	2118.408692
37.74654	2062.316016
37.814308	2010.229923
37.88208	1999.209897
37.949848	1938.10956
38.017609	1916.072005
38.085381	1801.886878
38.153149	1692.710041
38.220921	1591.546281
38.288689	1607.570112
38.356449	1549.475503
38.424221	1401.237114
38.491989	1368.18283
38.559761	1328.117449
38.627522	1208.926098
38.69529	1217.939132
38.763062	1100.751361
38.83083	1114.772469
38.89859	1040.653506
38.966358	892.41702
39.03413	818.298464
39.101898	787.248363
39.169659	726.150716
39.237431	611.969135
39.305199	531.84169
39.372971	487.77144
39.440731	439.694951
39.508499	363.574268
39.576271	327.516981
39.644039	258.407631
39.7118	223.352106
39.779572	218.343991
39.84734	166.261772
39.915112	160.25215
39.982868	160.251991
40.05064	137.215631
40.118408	146.229651
40.18618	125.196496
40.253941	131.205799
40.321709	127.19939
40.389481	144.22594
40.457249	130.203848
40.525021	136.213125
40.592781	124.1942
40.660549	134.209733
40.728321	107.167372
40.796089	140.218859
40.86385	122.190605
40.931622	132.206104
40.99939	127.198178
41.067162	115.179346
41.134918	124.193267
41.20269	130.202499
41.270458	139.21639
41.33823	126.196037
41.405991	113.175709
41.473759	121.188039
41.541531	112.173951
41.609299	135.209553
41.677059	126.19547
41.744831	120.186055
41.812599	98.151858
41.880371	107.16571
41.948132	130.201216
42.0159	127.196461
42.083672	120.185528
42.15144	115.177698
42.2192	122.18841
42.286968	125.192935
42.35474	112.172774
42.422508	126.194263
42.49028	121.186452
42.558041	115.177109
42.625809	155.238582
42.693581	128.196915
42.761349	134.206034
42.829109	120.184408
42.896881	136.208883
42.964649	141.216446
43.032421	139.213262
43.100182	115.176346
43.16795	126.193111
43.235722	132.2022
43.30349	129.1975
43.37125	117.179034
43.439018	127.194234
43.50679	97.148274
43.574558	132.20167
43.642319	111.169498
43.710091	127.19383
43.777859	101.154069
43.845631	116.17686
43.913391	128.195056
43.981159	131.199525
44.048931	102.155277
44.116699	124.188672
44.18446	146.222034
44.252232	132.200641
44.32	106.16104
44.387772	111.168552
44.45554	111.168468
44.5233	103.156248
44.591068	110.166784
44.65884	94.142454
44.726608	88.133296
44.794369	101.152912
44.862141	102.15435
44.929909	89.134612
44.997681	101.152688
45.065441	94.142037
45.133209	94.141968
45.200981	117.17662
45.268749	96.144849
45.33651	98.147796
45.404282	100.15074
45.47205	103.155188
45.539822	106.159632
45.607578	90.135472
45.67535	86.12939
45.743118	94.14136
45.81089	106.159331
45.878651	99.148739
45.946419	88.132151
46.014191	99.148601
46.081959	102.153033
46.149719	97.145464
46.217491	93.139401
46.285259	85.127351
46.353031	85.127292
46.420799	100.149687
46.48856	105.157099
46.556332	87.130109
46.6241	92.137524
46.691872	90.134473
46.759628	92.1374
46.8274	86.128381
46.895168	84.125339
46.96294	95.141689
47.030701	93.138644
47.098469	98.146033
47.166241	85.126605
47.234009	75.111661
47.301769	81.12054
47.369541	83.123462
47.437309	74.110026
47.505081	80.118895
47.572842	80.118843
47.64061	71.105428
47.708382	71.105382
47.77615	71.105336
47.84391	72.106773
47.911678	70.103763
47.97945	76.112608
48.047218	70.103673
48.114979	74.109551
48.182751	62.091747
48.250519	80.118332
48.318291	72.106454
48.386059	55.081284
48.453819	61.090114
48.521591	71.104842
48.589359	65.095942
48.657131	72.10623
48.724892	58.085538
48.79266	70.103192
48.860432	55.081046
48.9282	53.078066
48.99596	64.09423
49.063728	63.092719
49.1315	75.110334
49.199268	51.074997
49.267029	57.083785
49.334801	69.101383
49.402569	58.085186
49.470341	57.083683
49.538101	47.068974
49.605869	53.077747
49.673641	57.083581
49.741409	61.08941
49.80917	83.121608
49.876942	67.098126
49.94471	67.098086
50.012482	67.098047
50.080238	46.067289
50.14801	46.067262
50.215778	66.096468
50.28355	53.077436
50.351311	50.073024
50.419079	54.078835
50.486851	60.08756
50.554619	45.065644
50.622391	51.074368
50.690151	66.096203
50.757919	46.067024
50.825691	47.068455
50.893459	49.07134
50.96122	48.069857
51.028992	50.07274
51.09676	51.074166
51.164532	54.078498
51.232288	51.074109
51.30006	60.087153
51.367828	46.066792
51.4356	48.069669
51.503361	44.063839
51.571129	54.078318
51.638901	33.047843
51.706669	47.068114
51.774429	36.052153
51.842201	42.060822
51.909969	48.069485
51.977741	37.053541
52.045502	43.062201
52.11327	43.062177
52.181042	39.056372
52.24881	56.080915
52.31657	43.062108
52.384338	40.057754
52.45211	43.062062
52.519878	50.072139
52.58765	50.072112
52.655411	49.070644
52.723179	34.049
52.790951	41.059067
52.858719	40.057605
52.926479	49.070541
52.994251	40.057563
53.062019	38.054665
53.129791	42.060398
53.197552	38.054626
53.26532	41.058917
53.333092	33.047404
53.40086	33.047387
53.46862	45.064596
53.536388	33.047353
53.60416	36.05164
53.671928	44.063093
53.739689	41.05877
53.807461	26.037256
53.875229	37.052999
53.943001	46.065867
54.010761	45.064413
54.078529	38.054374
54.146301	32.045772
54.214069	24.034317
54.28183	30.042881
54.349602	29.041438
54.41737	32.045708
54.485142	45.064255
54.55291	35.049959
54.62067	33.047088
54.688438	37.052777
54.75621	26.037074
54.823978	22.031359
54.891739	35.049873
54.959511	33.047007
55.027279	34.048414
55.095051	35.049821
55.162811	28.039844
55.230579	30.042675
55.298351	34.048349
55.366119	36.051175
55.43388	31.044053
55.501652	41.058243
55.56942	30.042603
55.637192	31.044008
55.704948	25.035478
55.77272	26.036885
55.840488	33.0468
55.90826	31.043949
55.976021	35.049603
56.043789	15.021251
56.111561	38.053819
56.179329	28.039643
56.247089	29.041045
56.314861	27.038202
56.382629	29.041018
56.450401	30.042419
56.518169	21.029683
56.58593	30.042391
56.653702	21.029664
56.72147	18.025418
56.789242	27.038114
56.856998	24.033868
56.92477	24.033857
56.992538	20.028205
57.06031	23.032425
57.128071	24.033824
57.195839	25.035222
57.263611	14.019718
57.331379	29.040831
57.399139	31.043633
57.466911	25.035177
57.534679	25.035165
57.602451	21.02953
57.670212	22.030926
57.73798	29.040753
57.805752	18.025287
57.87352	15.021066
57.94128	28.03931
58.009048	21.029473
58.07682	20.028061
58.144588	17.023844
58.212349	23.03225
58.280121	22.030838
58.347889	22.030828
58.415661	25.035021
58.483429	17.023807
58.551189	23.032199
58.618961	17.023792
58.686729	14.019587
58.754501	17.023777
58.822262	15.020973
58.89003	20.027956
58.957802	14.019563
59.02557	20.027938
59.09333	15.020947
59.161098	16.022337
59.22887	19.026517
59.296638	12.016742
59.364399	16.022316
59.432171	15.020915
59.499939	11.015333
59.567711	10.013935
59.635471	15.020896
59.703239	17.023675
59.771011	12.016706
59.838779	14.019485
59.90654	11.015305
59.974312	18.025037
60.04208	12.016686
60.109852	12.016681
60.177608	17.023625
60.24538	17.023617
60.313148	12.016666
60.38092	7.009719
60.448689	7.009716
60.516449	8.011101
60.584221	10.013872
60.651989	8.011094
60.719761	8.011091
60.787521	12.016631
60.855289	10.013855
60.923061	9.012466
60.990829	16.022155
61.05859	10.013843
61.126362	13.017991
61.19413	12.016602
61.261902	13.01798
61.329659	14.019357
61.39743	11.015205
61.465199	7.009673
61.53297	8.011052
61.600731	13.017954
61.668499	13.017948
61.736271	7.009662
61.804039	11.015178
61.871799	5.006897
61.939571	7.009653
62.007339	11.015165
62.075111	8.011026
62.142872	4.005511
62.21064	13.017907
62.278412	9.012393
62.34618	6.00826
62.41394	8.01101
62.481709	8.011007
62.54948	11.01513
62.617249	5.006875
62.68502	6.008248
62.752781	14.01924
62.820549	4.005496
62.888321	10.013735
62.956089	6.008239
63.023849	8.010982
63.091621	4.005489
63.159389	6.008232
63.227161	13.01783
63.294922	5.006856
63.36269	8.010966
63.430462	7.009593
63.49823	5.00685
63.56599	8.010957
63.633759	10.013692
63.70153	5.006844
63.769299	4.005474
63.837059	4.005472
63.904831	6.008206
63.972599	6.008204
64.040367	6.008202
64.108131	3.0041
64.175903	4.005465
64.243668	3.004097
64.31144	8.010924
64.379204	2.00273
64.446968	5.006823
64.51474	6.008186
64.582512	3.004092
64.650284	4.005454
64.71804	3.00409
64.785812	3.004088
64.853577	5.006812
64.921349	6.008172
64.989113	5.006808
65.056877	3.004084
65.124649	4.005444
65.192421	4.005442
65.260178	2.00272
65.32795	6.008159
65.395721	8.010876
65.463493	3.004077
65.53125	3.004076
65.599022	6.00815
65.666786	3.004074
65.734558	2.002715
65.802322	4.005429
65.870087	2.002714
65.937859	2.002713
66.00563	3.004069
66.073387	1.001356
66.141159	6.008133
66.208931	4.00542
66.276703	5.006774
66.34446	6.008126
66.412231	3.004062
66.480003	4.005415
66.547768	2.002707
66.61554	3.004059
66.683296	3.004058
66.751068	6.008113
66.81884	2.002704
66.886612	5.006757
66.954369	3.004053
67.022141	3.004052
67.089912	3.004051
67.157677	3.00405
67.225441	1.00135
67.293213	3.004048
67.360977	3.004047
67.428749	1.001349
67.496513	3.004045
67.564278	7.009436
67.63205	1.001348
67.699821	5.006736
67.767578	4.005388
67.83535	2.002693
67.903122	3.004039
67.970886	6.008075
68.038651	0
68.106422	0
68.174187	1.001345
68.241959	2.002689
68.309723	2.002688
68.377487	2.002688
68.445259	0
68.513031	3.004029
68.580803	1.001343
68.64856	2.002685
68.716331	1.001342
68.784103	2.002683
68.851868	2.002683
68.919632	5.006705
68.987396	1.001341
69.055168	3.004021
69.12294	3.00402
69.190697	0
69.258469	2.002679
69.326241	0

End
